Bruker Nano GmbH Berlin, Germany
Esprit 2.x

Date: 8/21/2023 2:20:12 PM
Real time: 60259
Life time: 60259
Pulse density: 59

Primary energy: 10
Beam current: -1
Take off angle: 35
Tilt angle: 0
Azimut angle: 45

Detector type: Custom type
Window type: slew AP3.3
Detector thickness: 0.45
Si dead layer:0

Calibration, lin.: 4.998
Calibration, abs.: -477.257
Mn FWHM: 124.4
Fano factor: 0.109
Channels: 1982

Energy Counts
-0.4773    0
-0.4723    0
-0.4673    0
-0.4623    0
-0.4573    0
-0.4523    0
-0.4473    0
-0.4423    0
-0.4373    0
-0.4323    0
-0.4273    0
-0.4223    0
-0.4173    0
-0.4123    0
-0.4073    0
-0.4023    0
-0.3973    0
-0.3923    0
-0.3873    0
-0.3823    0
-0.3773    0
-0.3723    0
-0.3673    0
-0.3623    0
-0.3573    0
-0.3523    0
-0.3473    0
-0.3423    0
-0.3373    0
-0.3323    0
-0.3273    0
-0.3223    0
-0.3173    0
-0.3123    0
-0.3073    0
-0.3023    0
-0.2973    0
-0.2923    0
-0.2873    0
-0.2823    0
-0.2773    0
-0.2723    0
-0.2673    0
-0.2623    0
-0.2573    0
-0.2523    0
-0.2473    0
-0.2423    0
-0.2373    0
-0.2323    0
-0.2273    0
-0.2223    0
-0.2173    0
-0.2123    0
-0.2073    0
-0.2023    0
-0.1973    0
-0.1923    0
-0.1873    0
-0.1823    0
-0.1773    0
-0.1723    0
-0.1673    0
-0.1624    0
-0.1574    0
-0.1524    0
-0.1474    0
-0.1424    0
-0.1374    0
-0.1324    0
-0.1274    0
-0.1224    0
-0.1174    0
-0.1124    0
-0.1074    0
-0.1024    0
-0.0974    0
-0.0924    0
-0.0874    0
-0.0824    0
-0.0774    0
-0.0724    3
-0.0674    6
-0.0624   11
-0.0574   20
-0.0524   81
-0.0474  186
-0.0424  354
-0.0374  645
-0.0324 1165
-0.0274 1968
-0.0224 3012
-0.0174 4184
-0.0124 5287
-0.0074 6361
-0.0024 6801
 0.0026 6852
 0.0076 6394
 0.0126 5428
 0.0176 4108
 0.0226 3013
 0.0276 1945
 0.0326 1149
 0.0376  639
 0.0426  366
 0.0476  168
 0.0526   72
 0.0576   28
 0.0626    8
 0.0676    7
 0.0726    3
 0.0776    0
 0.0826    0
 0.0876    0
 0.0926    0
 0.0976    0
 0.1026    0
 0.1076    0
 0.1126    0
 0.1176    0
 0.1226    2
 0.1276    0
 0.1326    2
 0.1376    2
 0.1426    3
 0.1476    2
 0.1526    2
 0.1576    2
 0.1626    3
 0.1675    2
 0.1725    0
 0.1775    0
 0.1825    1
 0.1875    1
 0.1925    0
 0.1975    1
 0.2025    1
 0.2075    1
 0.2125    1
 0.2175    3
 0.2225    4
 0.2275    5
 0.2325    3
 0.2375    2
 0.2425    7
 0.2475   12
 0.2525   12
 0.2575   15
 0.2625   17
 0.2675   15
 0.2725   19
 0.2775   17
 0.2825   17
 0.2875   15
 0.2925   13
 0.2975   13
 0.3025   11
 0.3075    8
 0.3125    6
 0.3175    4
 0.3225    3
 0.3275    2
 0.3325    0
 0.3375    0
 0.3425    1
 0.3475    2
 0.3525    2
 0.3575    1
 0.3625    2
 0.3675    3
 0.3725    2
 0.3775    2
 0.3825    2
 0.3875    4
 0.3925    3
 0.3975    1
 0.4025    4
 0.4075    4
 0.4125    4
 0.4175    3
 0.4225    2
 0.4275    1
 0.4325    0
 0.4375    5
 0.4425    4
 0.4475    2
 0.4525    1
 0.4575    5
 0.4625    4
 0.4675    7
 0.4725   11
 0.4775   13
 0.4825   23
 0.4875   19
 0.4925   34
 0.4975   38
 0.5024   59
 0.5074   53
 0.5124   50
 0.5174   60
 0.5224   96
 0.5274   79
 0.5324   75
 0.5374   71
 0.5424   53
 0.5474   52
 0.5524   36
 0.5574   30
 0.5624   18
 0.5674   22
 0.5724   17
 0.5774    5
 0.5824    6
 0.5874    4
 0.5924    2
 0.5974    4
 0.6024    0
 0.6074    0
 0.6124    0
 0.6174    2
 0.6224    1
 0.6274    1
 0.6324    1
 0.6374    1
 0.6424    1
 0.6474    0
 0.6524    1
 0.6574    0
 0.6624    1
 0.6674    2
 0.6724    3
 0.6774    2
 0.6824    2
 0.6874    5
 0.6924    3
 0.6974    1
 0.7024    2
 0.7074    5
 0.7124    5
 0.7174    1
 0.7224    2
 0.7274    7
 0.7324    4
 0.7374    3
 0.7424    0
 0.7474    1
 0.7524    2
 0.7574    1
 0.7624    3
 0.7674    2
 0.7724    0
 0.7774    2
 0.7824    0
 0.7874    0
 0.7924    4
 0.7974    1
 0.8024    0
 0.8074    1
 0.8124    0
 0.8174    2
 0.8224    0
 0.8274    2
 0.8324    0
 0.8373    0
 0.8423    2
 0.8473    1
 0.8523    0
 0.8573    0
 0.8623    1
 0.8673    1
 0.8723    2
 0.8773    3
 0.8823    0
 0.8873    1
 0.8923    3
 0.8973    1
 0.9023    2
 0.9073    2
 0.9123    0
 0.9173    2
 0.9223    1
 0.9273    2
 0.9323    1
 0.9373    0
 0.9423    1
 0.9473    0
 0.9523    1
 0.9573    0
 0.9623    3
 0.9673    1
 0.9723    1
 0.9773    0
 0.9823    2
 0.9873    0
 0.9923    1
 0.9973    5
 1.0023    1
 1.0073    3
 1.0123    9
 1.0173    3
 1.0223    4
 1.0273    4
 1.0323    7
 1.0373    6
 1.0423    5
 1.0473    3
 1.0523    8
 1.0573    6
 1.0623    4
 1.0673    8
 1.0723    6
 1.0773    0
 1.0823    4
 1.0873    1
 1.0923    4
 1.0973    5
 1.1023    2
 1.1073    0
 1.1123    1
 1.1173    1
 1.1223    1
 1.1273    2
 1.1323    0
 1.1373    2
 1.1423    0
 1.1473    1
 1.1523    1
 1.1573    0
 1.1623    1
 1.1672    4
 1.1722    1
 1.1772    1
 1.1822    1
 1.1872    1
 1.1922    3
 1.1972    2
 1.2022    1
 1.2072    2
 1.2122    5
 1.2172    3
 1.2222    2
 1.2272    2
 1.2322    1
 1.2372    5
 1.2422    7
 1.2472    4
 1.2522    3
 1.2572    2
 1.2622    5
 1.2672    7
 1.2722    6
 1.2772    2
 1.2822    2
 1.2872    2
 1.2922    4
 1.2972    4
 1.3022    2
 1.3072    1
 1.3122    3
 1.3172    2
 1.3222    0
 1.3272    1
 1.3322    2
 1.3372    2
 1.3422    2
 1.3472    1
 1.3522    1
 1.3572    1
 1.3622    1
 1.3672    2
 1.3722    1
 1.3772    1
 1.3822    1
 1.3872    1
 1.3922    2
 1.3972    3
 1.4022    1
 1.4072    3
 1.4122    3
 1.4172    4
 1.4222    6
 1.4272    6
 1.4322    4
 1.4372    7
 1.4422    7
 1.4472   12
 1.4522   13
 1.4572   12
 1.4622   20
 1.4672   18
 1.4722   16
 1.4772   14
 1.4822   20
 1.4872   23
 1.4922   33
 1.4972   26
 1.5021   19
 1.5071   16
 1.5121   15
 1.5171   17
 1.5221   18
 1.5271   18
 1.5321   16
 1.5371   13
 1.5421    5
 1.5471    5
 1.5521    5
 1.5571    3
 1.5621    3
 1.5671    1
 1.5721    0
 1.5771    1
 1.5821    2
 1.5871    1
 1.5921    3
 1.5971    4
 1.6021    2
 1.6071    1
 1.6121    1
 1.6171    3
 1.6221    4
 1.6271    2
 1.6321    1
 1.6371    0
 1.6421    1
 1.6471    1
 1.6521    3
 1.6571    4
 1.6621    5
 1.6671   10
 1.6721   10
 1.6771    9
 1.6821   10
 1.6871    9
 1.6921   16
 1.6971   17
 1.7021   21
 1.7071   33
 1.7121   41
 1.7171   45
 1.7221   47
 1.7271   56
 1.7321   62
 1.7371   52
 1.7421   51
 1.7471   54
 1.7521   59
 1.7571   61
 1.7621   46
 1.7671   39
 1.7721   33
 1.7771   32
 1.7821   30
 1.7871   24
 1.7921   22
 1.7971   17
 1.8021   11
 1.8071    8
 1.8121    6
 1.8171    9
 1.8221   10
 1.8271    8
 1.8321    7
  1.837    3
  1.842    3
  1.847    2
  1.852    1
  1.857    1
  1.862    2
  1.867    3
  1.872    3
  1.877    2
  1.882    1
  1.887    0
  1.892    1
  1.897    2
  1.902    3
  1.907    2
  1.912    2
  1.917    2
  1.922    1
  1.927    1
  1.932    0
  1.937    1
  1.942    1
  1.947    2
  1.952    1
  1.957    1
  1.962    1
  1.967    1
  1.972    1
  1.977    3
  1.982    2
  1.987    3
  1.992    3
  1.997    3
  2.002    4
  2.007    2
  2.012    1
  2.017    2
  2.022    2
  2.027    2
  2.032    1
  2.037    1
  2.042    3
  2.047    2
  2.052    2
  2.057    1
  2.062    2
  2.067    2
  2.072    2
  2.077    1
  2.082    2
  2.087    2
  2.092    1
  2.097    1
  2.102    1
  2.107    0
  2.112    0
  2.117    0
  2.122    0
  2.127    0
  2.132    1
  2.137    1
  2.142    1
  2.147    1
  2.152    0
  2.157    1
  2.162    1
 2.1669    1
 2.1719    1
 2.1769    2
 2.1819    1
 2.1869    1
 2.1919    2
 2.1969    1
 2.2019    1
 2.2069    1
 2.2119    0
 2.2169    1
 2.2219    1
 2.2269    1
 2.2319    0
 2.2369    1
 2.2419    3
 2.2469    3
 2.2519    2
 2.2569    2
 2.2619    1
 2.2669    1
 2.2719    2
 2.2769    1
 2.2819    2
 2.2869    1
 2.2919    2
 2.2969    1
 2.3019    1
 2.3069    1
 2.3119    2
 2.3169    1
 2.3219    1
 2.3269    1
 2.3319    2
 2.3369    1
 2.3419    0
 2.3469    0
 2.3519    1
 2.3569    2
 2.3619    1
 2.3669    1
 2.3719    0
 2.3769    0
 2.3819    1
 2.3869    1
 2.3919    1
 2.3969    0
 2.4019    1
 2.4069    1
 2.4119    0
 2.4169    0
 2.4219    0
 2.4269    1
 2.4319    0
 2.4369    0
 2.4419    0
 2.4469    0
 2.4519    0
 2.4569    0
 2.4619    0
 2.4669    0
 2.4719    0
 2.4769    0
 2.4819    0
 2.4869    0
 2.4919    0
 2.4969    1
 2.5018    1
 2.5068    2
 2.5118    1
 2.5168    1
 2.5218    2
 2.5268    1
 2.5318    2
 2.5368    1
 2.5418    2
 2.5468    1
 2.5518    1
 2.5568    0
 2.5618    1
 2.5668    1
 2.5718    2
 2.5768    4
 2.5818    2
 2.5868    1
 2.5918    2
 2.5968    1
 2.6018    1
 2.6068    1
 2.6118    0
 2.6168    1
 2.6218    1
 2.6268    1
 2.6318    2
 2.6368    1
 2.6418    4
 2.6468    1
 2.6518    1
 2.6568    1
 2.6618    0
 2.6668    0
 2.6718    0
 2.6768    1
 2.6818    0
 2.6868    1
 2.6918    1
 2.6968    2
 2.7018    0
 2.7068    0
 2.7118    2
 2.7168    0
 2.7218    1
 2.7268    1
 2.7318    2
 2.7368    0
 2.7418    1
 2.7468    0
 2.7518    1
 2.7568    0
 2.7618    0
 2.7668    1
 2.7718    0
 2.7768    0
 2.7818    0
 2.7868    0
 2.7918    2
 2.7968    0
 2.8018    0
 2.8068    0
 2.8118    0
 2.8168    4
 2.8218    1
 2.8268    0
 2.8318    1
 2.8367    0
 2.8417    2
 2.8467    0
 2.8517    0
 2.8567    0
 2.8617    2
 2.8667    0
 2.8717    3
 2.8767    3
 2.8817    2
 2.8867    0
 2.8917    1
 2.8967    0
 2.9017    0
 2.9067    0
 2.9117    1
 2.9167    2
 2.9217    1
 2.9267    2
 2.9317    0
 2.9367    1
 2.9417    1
 2.9467    1
 2.9517    1
 2.9567    0
 2.9617    0
 2.9667    0
 2.9717    0
 2.9767    1
 2.9817    1
 2.9867    0
 2.9917    0
 2.9967    0
 3.0017    0
 3.0067    0
 3.0117    0
 3.0167    0
 3.0217    0
 3.0267    1
 3.0317    0
 3.0367    0
 3.0417    2
 3.0467    1
 3.0517    2
 3.0567    2
 3.0617    0
 3.0667    0
 3.0717    1
 3.0767    1
 3.0817    0
 3.0867    0
 3.0917    0
 3.0967    1
 3.1017    0
 3.1067    0
 3.1117    0
 3.1167    1
 3.1217    1
 3.1267    2
 3.1317    0
 3.1367    1
 3.1417    0
 3.1467    0
 3.1517    1
 3.1567    1
 3.1617    1
 3.1666    0
 3.1716    0
 3.1766    1
 3.1816    1
 3.1866    2
 3.1916    2
 3.1966    1
 3.2016    1
 3.2066    1
 3.2116    1
 3.2166    1
 3.2216    1
 3.2266    0
 3.2316    0
 3.2366    1
 3.2416    1
 3.2466    1
 3.2516    1
 3.2566    2
 3.2616    1
 3.2666    1
 3.2716    3
 3.2766    2
 3.2816    2
 3.2866    2
 3.2916    3
 3.2966    2
 3.3016    1
 3.3066    1
 3.3116    1
 3.3166    3
 3.3216    1
 3.3266    2
 3.3316    2
 3.3366    1
 3.3416    3
 3.3466    0
 3.3516    0
 3.3566    1
 3.3616    2
 3.3666    1
 3.3716    2
 3.3766    1
 3.3816    0
 3.3866    2
 3.3916    0
 3.3966    1
 3.4016    0
 3.4066    1
 3.4116    2
 3.4166    1
 3.4216    1
 3.4266    0
 3.4316    1
 3.4366    0
 3.4416    1
 3.4466    1
 3.4516    0
 3.4566    1
 3.4616    1
 3.4666    0
 3.4716    1
 3.4766    3
 3.4816    2
 3.4866    2
 3.4916    0
 3.4966    1
 3.5015    0
 3.5065    0
 3.5115    2
 3.5165    1
 3.5215    0
 3.5265    0
 3.5315    0
 3.5365    0
 3.5415    1
 3.5465    0
 3.5515    0
 3.5565    0
 3.5615    1
 3.5665    1
 3.5715    1
 3.5765    1
 3.5815    2
 3.5865    0
 3.5915    0
 3.5965    2
 3.6015    1
 3.6065    1
 3.6115    1
 3.6165    0
 3.6215    0
 3.6265    0
 3.6315    1
 3.6365    0
 3.6415    2
 3.6465    2
 3.6515    1
 3.6565    2
 3.6615    0
 3.6665    1
 3.6715    0
 3.6765    1
 3.6815    2
 3.6865    0
 3.6915    0
 3.6965    0
 3.7015    0
 3.7065    0
 3.7115    0
 3.7165    1
 3.7215    1
 3.7265    1
 3.7315    0
 3.7365    0
 3.7415    2
 3.7465    0
 3.7515    1
 3.7565    1
 3.7615    0
 3.7665    1
 3.7715    1
 3.7765    1
 3.7815    0
 3.7865    0
 3.7915    1
 3.7965    1
 3.8015    0
 3.8065    1
 3.8115    0
 3.8165    0
 3.8215    0
 3.8265    0
 3.8315    0
 3.8364    0
 3.8414    0
 3.8464    0
 3.8514    0
 3.8564    0
 3.8614    1
 3.8664    1
 3.8714    2
 3.8764    0
 3.8814    0
 3.8864    1
 3.8914    3
 3.8964    0
 3.9014    1
 3.9064    0
 3.9114    0
 3.9164    1
 3.9214    1
 3.9264    0
 3.9314    1
 3.9364    0
 3.9414    1
 3.9464    0
 3.9514    0
 3.9564    0
 3.9614    0
 3.9664    0
 3.9714    0
 3.9764    0
 3.9814    1
 3.9864    0
 3.9914    0
 3.9964    1
 4.0014    0
 4.0064    1
 4.0114    0
 4.0164    0
 4.0214    0
 4.0264    2
 4.0314    1
 4.0364    0
 4.0414    0
 4.0464    1
 4.0514    1
 4.0564    0
 4.0614    0
 4.0664    0
 4.0714    0
 4.0764    0
 4.0814    0
 4.0864    1
 4.0914    0
 4.0964    0
 4.1014    0
 4.1064    1
 4.1114    0
 4.1164    1
 4.1214    0
 4.1264    0
 4.1314    0
 4.1364    0
 4.1414    0
 4.1464    0
 4.1514    2
 4.1564    1
 4.1614    0
 4.1663    0
 4.1713    0
 4.1763    1
 4.1813    0
 4.1863    0
 4.1913    0
 4.1963    2
 4.2013    1
 4.2063    0
 4.2113    1
 4.2163    0
 4.2213    0
 4.2263    0
 4.2313    0
 4.2363    0
 4.2413    1
 4.2463    0
 4.2513    0
 4.2563    0
 4.2613    0
 4.2663    1
 4.2713    0
 4.2763    0
 4.2813    0
 4.2863    0
 4.2913    1
 4.2963    0
 4.3013    0
 4.3063    0
 4.3113    0
 4.3163    1
 4.3213    1
 4.3263    0
 4.3313    1
 4.3363    0
 4.3413    0
 4.3463    0
 4.3513    0
 4.3563    2
 4.3613    1
 4.3663    1
 4.3713    0
 4.3763    0
 4.3813    0
 4.3863    0
 4.3913    0
 4.3963    0
 4.4013    0
 4.4063    1
 4.4113    0
 4.4163    0
 4.4213    0
 4.4263    0
 4.4313    1
 4.4363    1
 4.4413    0
 4.4463    1
 4.4513    0
 4.4563    0
 4.4613    1
 4.4663    1
 4.4713    1
 4.4763    0
 4.4813    0
 4.4863    1
 4.4913    0
 4.4963    0
 4.5012    0
 4.5062    0
 4.5112    0
 4.5162    0
 4.5212    1
 4.5262    1
 4.5312    0
 4.5362    1
 4.5412    0
 4.5462    0
 4.5512    0
 4.5562    0
 4.5612    0
 4.5662    0
 4.5712    1
 4.5762    1
 4.5812    2
 4.5862    1
 4.5912    0
 4.5962    0
 4.6012    1
 4.6062    0
 4.6112    0
 4.6162    0
 4.6212    0
 4.6262    0
 4.6312    0
 4.6362    0
 4.6412    0
 4.6462    0
 4.6512    0
 4.6562    0
 4.6612    0
 4.6662    0
 4.6712    0
 4.6762    1
 4.6812    0
 4.6862    0
 4.6912    0
 4.6962    0
 4.7012    2
 4.7062    1
 4.7112    0
 4.7162    0
 4.7212    1
 4.7262    0
 4.7312    1
 4.7362    1
 4.7412    1
 4.7462    0
 4.7512    0
 4.7562    1
 4.7612    0
 4.7662    0
 4.7712    0
 4.7762    0
 4.7812    0
 4.7862    0
 4.7912    0
 4.7962    1
 4.8012    2
 4.8062    2
 4.8112    1
 4.8162    0
 4.8212    0
 4.8262    0
 4.8312    1
 4.8361    1
 4.8411    0
 4.8461    0
 4.8511    0
 4.8561    0
 4.8611    1
 4.8661    0
 4.8711    0
 4.8761    0
 4.8811    0
 4.8861    0
 4.8911    0
 4.8961    0
 4.9011    0
 4.9061    0
 4.9111    0
 4.9161    0
 4.9211    0
 4.9261    0
 4.9311    0
 4.9361    0
 4.9411    0
 4.9461    0
 4.9511    0
 4.9561    1
 4.9611    0
 4.9661    1
 4.9711    0
 4.9761    0
 4.9811    1
 4.9861    1
 4.9911    0
 4.9961    0
 5.0011    0
 5.0061    0
 5.0111    0
 5.0161    0
 5.0211    0
 5.0261    0
 5.0311    0
 5.0361    0
 5.0411    0
 5.0461    0
 5.0511    0
 5.0561    1
 5.0611    0
 5.0661    0
 5.0711    0
 5.0761    0
 5.0811    0
 5.0861    0
 5.0911    0
 5.0961    0
 5.1011    0
 5.1061    1
 5.1111    0
 5.1161    0
 5.1211    1
 5.1261    1
 5.1311    0
 5.1361    0
 5.1411    0
 5.1461    0
 5.1511    0
 5.1561    0
 5.1611    0
  5.166    0
  5.171    0
  5.176    0
  5.181    0
  5.186    0
  5.191    0
  5.196    0
  5.201    1
  5.206    0
  5.211    0
  5.216    0
  5.221    0
  5.226    0
  5.231    0
  5.236    0
  5.241    0
  5.246    1
  5.251    1
  5.256    1
  5.261    0
  5.266    1
  5.271    0
  5.276    0
  5.281    1
  5.286    0
  5.291    0
  5.296    0
  5.301    0
  5.306    1
  5.311    0
  5.316    0
  5.321    0
  5.326    0
  5.331    0
  5.336    0
  5.341    0
  5.346    0
  5.351    0
  5.356    0
  5.361    0
  5.366    0
  5.371    0
  5.376    0
  5.381    1
  5.386    1
  5.391    0
  5.396    0
  5.401    1
  5.406    1
  5.411    0
  5.416    0
  5.421    1
  5.426    0
  5.431    0
  5.436    1
  5.441    0
  5.446    0
  5.451    0
  5.456    0
  5.461    0
  5.466    1
  5.471    0
  5.476    1
  5.481    0
  5.486    0
  5.491    0
  5.496    0
 5.5009    0
 5.5059    0
 5.5109    0
 5.5159    0
 5.5209    0
 5.5259    1
 5.5309    1
 5.5359    0
 5.5409    1
 5.5459    0
 5.5509    0
 5.5559    0
 5.5609    0
 5.5659    0
 5.5709    0
 5.5759    1
 5.5809    0
 5.5859    0
 5.5909    0
 5.5959    0
 5.6009    0
 5.6059    0
 5.6109    0
 5.6159    0
 5.6209    1
 5.6259    0
 5.6309    0
 5.6359    0
 5.6409    0
 5.6459    0
 5.6509    2
 5.6559    1
 5.6609    0
 5.6659    0
 5.6709    0
 5.6759    0
 5.6809    0
 5.6859    1
 5.6909    0
 5.6959    0
 5.7009    0
 5.7059    0
 5.7109    0
 5.7159    0
 5.7209    0
 5.7259    2
 5.7309    0
 5.7359    0
 5.7409    0
 5.7459    0
 5.7509    0
 5.7559    0
 5.7609    0
 5.7659    1
 5.7709    0
 5.7759    0
 5.7809    0
 5.7859    0
 5.7909    0
 5.7959    0
 5.8009    0
 5.8059    0
 5.8109    0
 5.8159    0
 5.8209    0
 5.8259    0
 5.8309    0
 5.8358    0
 5.8408    1
 5.8458    0
 5.8508    0
 5.8558    0
 5.8608    0
 5.8658    0
 5.8708    0
 5.8758    0
 5.8808    1
 5.8858    0
 5.8908    0
 5.8958    0
 5.9008    0
 5.9058    0
 5.9108    0
 5.9158    0
 5.9208    0
 5.9258    0
 5.9308    0
 5.9358    0
 5.9408    0
 5.9458    0
 5.9508    0
 5.9558    0
 5.9608    0
 5.9658    0
 5.9708    0
 5.9758    0
 5.9808    1
 5.9858    1
 5.9908    0
 5.9958    0
 6.0008    0
 6.0058    0
 6.0108    0
 6.0158    0
 6.0208    0
 6.0258    0
 6.0308    0
 6.0358    0
 6.0408    0
 6.0458    0
 6.0508    0
 6.0558    0
 6.0608    0
 6.0658    0
 6.0708    2
 6.0758    1
 6.0808    0
 6.0858    0
 6.0908    0
 6.0958    0
 6.1008    0
 6.1058    1
 6.1108    1
 6.1158    1
 6.1208    0
 6.1258    0
 6.1308    0
 6.1358    0
 6.1408    0
 6.1458    1
 6.1508    0
 6.1558    2
 6.1608    0
 6.1657    0
 6.1707    0
 6.1757    0
 6.1807    0
 6.1857    0
 6.1907    0
 6.1957    0
 6.2007    0
 6.2057    0
 6.2107    0
 6.2157    0
 6.2207    0
 6.2257    0
 6.2307    0
 6.2357    2
 6.2407    0
 6.2457    0
 6.2507    0
 6.2557    0
 6.2607    0
 6.2657    1
 6.2707    0
 6.2757    0
 6.2807    0
 6.2857    0
 6.2907    0
 6.2957    1
 6.3007    0
 6.3057    0
 6.3107    0
 6.3157    0
 6.3207    0
 6.3257    0
 6.3307    1
 6.3357    1
 6.3407    0
 6.3457    0
 6.3507    1
 6.3557    0
 6.3607    0
 6.3657    1
 6.3707    1
 6.3757    0
 6.3807    0
 6.3857    0
 6.3907    3
 6.3957    2
 6.4007    1
 6.4057    0
 6.4107    0
 6.4157    1
 6.4207    1
 6.4257    0
 6.4307    2
 6.4357    1
 6.4407    1
 6.4457    2
 6.4507    0
 6.4557    0
 6.4607    0
 6.4657    0
 6.4707    1
 6.4757    0
 6.4807    2
 6.4857    0
 6.4907    2
 6.4957    0
